M- 26 del, 5, sur
Integration time: 5000 ms
Average: 1 scans
Nr of pixels used for smoothing: 0
Data measured with spectrometer serial number: 0604021S1
Wave   ;Sample
[nm]   ;[counts]
173,70;-268,00
174,30;-59,000
174,90;-1,0000
175,50;48,000
176,10;29,000
176,70;42,000
177,30;65,000
177,90;-81,000
178,50;-26,000
179,10;38,000
179,70;-44,000
180,30;-40,000
180,89;-3,0000
181,49;-3,0000
182,09;-20,000
182,69;-67,000
183,29;-20,000
183,89;10,0000
184,49;-72,000
185,09;146,00
185,69;101,00
186,29;-35,000
186,89;87,000
187,48;3,0000
188,08;-21,000
188,68;-56,000
189,28;-71,000
189,88;-15,000
190,48;78,000
191,08;-87,000
191,68;-65,000
192,28;73,000
192,87;55,000
193,47;91,000
194,07;32,000
194,67;-27,000
195,27;61,000
195,87;121,00
196,47;109,00
197,06;32,000
197,66;43,000
198,26;-97,000
198,86;-49,000
199,46;22,000
200,06;-21,000
200,66;19,000
201,25;61,000
201,85;-43,000
202,45;-51,000
203,05;82,000
203,65;8,0000
204,24;134,00
204,84;35,000
205,44;-65,000
206,04;-34,000
206,64;-19,000
207,24;46,000
207,83;82,000
208,43;31,000
209,03;6,0000
209,63;53,000
210,22;-5,0000
210,82;21,000
211,42;30,000
212,02;23,000
212,62;26,000
213,21;-41,000
213,81;35,000
214,41;-6,0000
215,01;110,00
215,60;32,000
216,20;163,00
216,80;64,000
217,40;-12,000
218,00;9,0000
218,59;-77,000
219,19;46,000
219,79;62,000
220,38;76,000
220,98;1,0000
221,58;66,000
222,18;87,000
222,77;-19,000
223,37;-5,0000
223,97;-112,00
224,57;-16,000
225,16;69,000
225,76;47,000
226,36;-35,000
226,95;-77,000
227,55;0
228,15;46,000
228,75;-81,000
229,34;-22,000
229,94;6,0000
230,54;-56,000
231,13;46,000
231,73;50,000
232,33;37,000
232,92;-27,000
233,52;40,000
234,12;76,000
234,71;16,000
235,31;57,000
235,91;38,000
236,50;64,000
237,10;-6,0000
237,70;4,0000
238,29;-7,0000
238,89;7,0000
239,49;48,000
240,08;-138,00
240,68;37,000
241,28;29,000
241,87;-43,000
242,47;-1,0000
243,06;-6,0000
243,66;26,000
244,26;67,000
244,85;80,000
245,45;67,000
246,05;-8,0000
246,64;90,000
247,24;105,00
247,83;-106,00
248,43;-43,000
249,03;-20,000
249,62;14,000
250,22;47,000
250,81;31,000
251,41;98,000
252,01;71,000
252,60;88,000
253,20;-25,000
253,79;59,000
254,39;-95,000
254,98;108,00
255,58;-66,000
256,18;58,000
256,77;75,000
257,37;25,000
257,96;-51,000
258,56;-24,000
259,15;-13,000
259,75;60,000
260,34;64,000
260,94;21,000
261,53;89,000
262,13;-23,000
262,73;64,000
263,32;52,000
263,92;30,000
264,51;93,000
265,11;52,000
265,70;25,000
266,30;79,000
266,89;73,000
267,49;-11,000
268,08;85,000
268,68;-30,000
269,27;12,000
269,87;16,000
270,46;176,00
271,06;45,000
271,65;61,000
272,25;155,00
272,84;36,000
273,44;184,00
274,03;61,000
274,62;22,000
275,22;-70,000
275,81;-23,000
276,41;125,00
277,00;69,000
277,60;-20,000
278,19;108,00
278,79;115,00
279,38;91,000
279,98;90,000
280,57;131,00
281,16;30,000
281,76;78,000
282,35;97,000
282,95;146,00
283,54;41,000
284,14;5,0000
284,73;71,000
285,32;-37,000
285,92;-28,000
286,51;-19,000
287,11;131,00
287,70;105,00
288,29;-10,0000
288,89;101,00
289,48;93,000
290,08;79,000
290,67;45,000
291,26;110,00
291,86;91,000
292,45;91,000
293,04;-17,000
293,64;69,000
294,23;-56,000
294,83;121,00
295,42;32,000
296,01;147,00
296,61;-10,0000
297,20;33,000
297,79;34,000
298,39;86,000
298,98;49,000
299,57;75,000
300,17;135,00
300,76;56,000
301,35;79,000
301,95;121,00
302,54;109,00
303,13;129,00
303,73;81,000
304,32;145,00
304,91;150,00
305,51;93,000
306,10;55,000
306,69;147,00
307,28;366,00
307,88;101,00
308,47;124,00
309,06;145,00
309,66;72,000
310,25;237,00
310,84;160,00
311,43;188,00
312,03;248,00
312,62;280,00
313,21;481,00
313,81;483,00
314,40;579,00
314,99;657,00
315,58;681,00
316,18;765,00
316,77;756,00
317,36;624,00
317,95;474,00
318,54;469,00
319,14;354,00
319,73;344,00
320,32;284,00
320,91;313,00
321,51;291,00
322,10;187,00
322,69;280,00
323,28;327,00
323,87;407,00
324,47;537,00
325,06;474,00
325,65;517,00
326,24;619,00
326,83;751,00
327,43;791,00
328,02;755,00
328,61;742,00
329,20;646,00
329,79;695,00
330,39;771,00
330,98;786,00
331,57;771,00
332,16;769,00
332,75;958,00
333,34;1146,0
333,93;1013,0
334,53;1359,0
335,12;1664,0
335,71;2388,0
336,30;3465,0
336,89;4456,0
337,48;4320,0
338,07;4177,0
338,67;3952,0
339,26;3526,0
339,85;3230,0
340,44;2169,0
341,03;1152,0
341,62;935,00
342,21;912,00
342,80;874,00
343,39;950,00
343,99;902,00
344,58;958,00
345,17;964,00
345,76;992,00
346,35;1041,0
346,94;1176,0
347,53;1071,0
348,12;1028,0
348,71;1216,0
349,30;1361,0
349,89;1470,0
350,48;1628,0
351,07;1681,0
351,66;1841,0
352,26;2245,0
352,85;2824,0
353,44;3336,0
354,03;3551,0
354,62;3540,0
355,21;3800,0
355,80;4189,0
356,39;5273,0
356,98;6636,0
357,57;6860,0
358,16;7116,0
358,75;6888,0
359,34;6481,0
359,93;5996,0
360,52;4989,0
361,11;3550,0
361,70;2269,0
362,29;1811,0
362,88;1676,0
363,47;1658,0
364,06;1721,0
364,65;1814,0
365,24;1644,0
365,83;1829,0
366,42;1816,0
367,01;2077,0
367,60;1984,0
368,19;2026,0
368,78;2172,0
369,37;2256,0
369,95;2487,0
370,54;2701,0
371,13;2794,0
371,72;2804,0
372,31;2944,0
372,90;3034,0
373,49;3294,0
374,08;3510,0
374,67;4156,0
375,26;4561,0
375,85;4583,0
376,44;4754,0
377,03;4739,0
377,61;4835,0
378,20;4732,0
378,79;4709,0
379,38;4899,0
379,97;6043,0
380,56;6241,0
381,15;6565,0
381,74;6534,0
382,33;6780,0
382,91;6767,0
383,50;6816,0
384,09;6535,0
384,68;7019,0
385,27;7908,0
385,86;8413,0
386,45;8709,0
387,03;8904,0
387,62;9178,0
388,21;8769,0
388,80;7881,0
389,39;7069,0
389,98;6002,0
390,57;5436,0
391,15;4791,0
391,74;4134,0
392,33;3372,0
392,92;3659,0
393,51;3812,0
394,09;3639,0
394,68;3707,0
395,27;3670,0
395,86;3786,0
396,45;4171,0
397,03;4054,0
397,62;3747,0
398,21;3835,0
398,80;4709,0
399,39;5338,0
399,97;5617,0
400,56;5341,0
401,15;5246,0
401,74;5506,0
402,32;5545,0
402,91;5354,0
403,50;5211,0
404,09;5750,0
404,67;6195,0
405,26;6598,0
405,85;7050,0
406,44;7386,0
407,02;7399,0
407,61;7331,0
408,20;6963,0
408,78;7096,0
409,37;7105,0
409,96;6936,0
410,55;7010,0
411,13;6790,0
411,72;6797,0
412,31;6748,0
412,89;7019,0
413,48;6842,0
414,07;6689,0
414,65;6968,0
415,24;6962,0
415,83;6886,0
416,42;7048,0
417,00;7338,0
417,59;7646,0
418,18;7519,0
418,76;7736,0
419,35;7745,0
419,94;7418,0
420,52;7329,0
421,11;7057,0
421,69;6932,0
422,28;6939,0
422,87;6935,0
423,45;7280,0
424,04;7469,0
424,63;7412,0
425,21;7616,0
425,80;7583,0
426,38;7717,0
426,97;7495,0
427,56;6967,0
428,14;6526,0
428,73;6178,0
429,31;6215,0
429,90;6086,0
430,49;5854,0
431,07;5584,0
431,66;5820,0
432,24;5943,0
432,83;6413,0
433,42;6444,0
434,00;7101,0
434,59;7697,0
435,17;7701,0
435,76;7699,0
436,34;7568,0
436,93;7173,0
437,51;6742,0
438,10;6358,0
438,69;5488,0
439,27;5096,0
439,86;4998,0
440,44;4453,0
441,03;4758,0
441,61;4960,0
442,20;5105,0
442,78;5360,0
443,37;5654,0
443,95;5837,0
444,54;6552,0
445,12;6246,0
445,71;5769,0
446,29;5597,0
446,88;5211,0
447,46;4934,0
448,05;4610,0
448,63;3891,0
449,22;3733,0
449,80;3749,0
450,39;3703,0
450,97;3623,0
451,56;3542,0
452,14;3610,0
452,72;3623,0
453,31;3643,0
453,89;3712,0
454,48;3828,0
455,06;3673,0
455,65;3813,0
456,23;3512,0
456,81;3472,0
457,40;3199,0
457,98;3307,0
458,57;3415,0
459,15;3450,0
459,74;3964,0
460,32;4546,0
460,90;4707,0
461,49;5145,0
462,07;5476,0
462,66;6561,0
463,24;7054,0
463,82;7318,0
464,41;7204,0
464,99;7370,0
465,57;7252,0
466,16;7074,0
466,74;6451,0
467,33;5730,0
467,91;5398,0
468,49;4692,0
469,08;4481,0
469,66;4524,0
470,24;4662,0
470,83;4536,0
471,41;4303,0
471,99;4104,0
472,58;4013,0
473,16;4014,0
473,74;3738,0
474,33;3615,0
474,91;3317,0
475,49;3345,0
476,08;3332,0
476,66;3570,0
477,24;3752,0
477,82;3902,0
478,41;4203,0
478,99;4375,0
479,57;4774,0
480,16;5153,0
480,74;5573,0
481,32;5746,0
481,90;6235,0
482,49;6459,0
483,07;6863,0
483,65;7274,0
484,23;7824,0
484,82;8506,0
485,40;9164,0
485,98;10187
486,56;11008
487,15;11200
487,73;11191
488,31;10862
488,89;10078
489,47;9648,0
490,06;8840,0
490,64;8017,0
491,22;7137,0
491,80;6516,0
492,39;5951,0
492,97;5519,0
493,55;5111,0
494,13;4885,0
494,71;4554,0
495,29;4220,0
495,88;4059,0
496,46;3724,0
497,04;3623,0
497,62;3143,0
498,20;3287,0
498,78;3476,0
499,37;4424,0
499,95;6711,0
500,53;7828,0
501,11;8129,0
501,69;7991,0
502,27;7943,0
502,85;7577,0
503,44;6966,0
504,02;5371,0
504,60;4052,0
505,18;3414,0
505,76;3218,0
506,34;2885,0
506,92;2873,0
507,50;2717,0
508,08;2658,0
508,67;2313,0
509,25;2322,0
509,83;2316,0
510,41;2328,0
510,99;2266,0
511,57;2127,0
512,15;2210,0
512,73;2227,0
513,31;2307,0
513,89;2084,0
514,47;2152,0
515,05;2147,0
515,63;2232,0
516,21;2404,0
516,79;2386,0
517,38;2501,0
517,96;2632,0
518,54;2639,0
519,12;2552,0
519,70;2476,0
520,28;2316,0
520,86;2304,0
521,44;2302,0
522,02;2336,0
522,60;2188,0
523,18;2018,0
523,76;2188,0
524,34;1948,0
524,92;2289,0
525,50;1813,0
526,08;1756,0
526,66;1866,0
527,24;1711,0
527,82;1723,0
528,39;1824,0
528,97;1856,0
529,55;1901,0
530,13;1959,0
530,71;1906,0
531,29;2067,0
531,87;2121,0
532,45;1925,0
533,03;2145,0
533,61;2050,0
534,19;2183,0
534,77;2112,0
535,35;2195,0
535,93;2311,0
536,51;2254,0
537,08;1970,0
537,66;2117,0
538,24;2037,0
538,82;2132,0
539,40;2090,0
539,98;1996,0
540,56;1878,0
541,14;2043,0
541,72;1964,0
542,29;2085,0
542,87;1945,0
543,45;2067,0
544,03;1965,0
544,61;2043,0
545,19;2097,0
545,77;1974,0
546,34;2259,0
546,92;2237,0
547,50;2209,0
548,08;2228,0
548,66;2438,0
549,23;2337,0
549,81;2230,0
550,39;2195,0
550,97;2234,0
551,55;2218,0
552,13;2142,0
552,70;2236,0
553,28;2325,0
553,86;2446,0
554,44;2524,0
555,01;2456,0
555,59;2440,0
556,17;2356,0
556,75;2468,0
557,33;2249,0
557,90;2227,0
558,48;2040,0
559,06;2120,0
559,64;2115,0
560,21;2114,0
560,79;2078,0
561,37;2128,0
561,95;2088,0
562,52;1934,0
563,10;2060,0
563,68;1920,0
564,25;2117,0
564,83;1959,0
565,41;1999,0
565,99;2384,0
566,56;2822,0
567,14;3507,0
567,72;4443,0
568,29;4451,0
568,87;4583,0
569,45;4670,0
570,02;4395,0
570,60;4068,0
571,18;3679,0
571,75;2695,0
572,33;2252,0
572,91;1969,0
573,48;2069,0
574,06;2015,0
574,64;1919,0
575,21;2012,0
575,79;1847,0
576,37;1945,0
576,94;1874,0
577,52;1876,0
578,09;1848,0
578,67;1967,0
579,25;1813,0
579,82;1857,0
580,40;1687,0
580,97;1757,0
581,55;1695,0
582,13;1786,0
582,70;1756,0
583,28;1713,0
583,85;1819,0
584,43;1673,0
585,01;1763,0
585,58;1623,0
586,16;1828,0
586,73;1622,0
587,31;1622,0
587,88;1804,0
588,46;1924,0
589,03;2129,0
589,61;2285,0
590,18;2233,0
590,76;2175,0
591,34;2053,0
591,91;2270,0
592,49;2512,0
593,06;2265,0
593,64;2600,0
594,21;2525,0
594,79;2523,0
595,36;2587,0
595,94;2510,0
596,51;2413,0
597,09;2173,0
597,66;2017,0
598,24;1747,0
598,81;1651,0
599,38;1634,0
599,96;1676,0
600,53;1657,0
601,11;1646,0
601,68;1662,0
602,26;1707,0
602,83;1650,0
603,41;1670,0
603,98;1602,0
604,56;1612,0
605,13;1623,0
605,70;1637,0
606,28;1506,0
606,85;1619,0
607,43;1620,0
608,00;1529,0
608,57;1546,0
609,15;1509,0
609,72;1523,0
610,30;1662,0
610,87;1593,0
611,44;1607,0
612,02;1711,0
612,59;1504,0
613,16;1602,0
613,74;1609,0
614,31;1501,0
614,89;1634,0
615,46;1686,0
616,03;1887,0
616,61;2154,0
617,18;2163,0
617,75;2143,0
618,33;2142,0
618,90;2259,0
619,47;2133,0
620,05;2033,0
620,62;1881,0
621,19;1798,0
621,77;1538,0
622,34;1659,0
622,91;1440,0
623,48;1476,0
624,06;1469,0
624,63;1350,0
625,20;1376,0
625,78;1407,0
626,35;1374,0
626,92;1423,0
627,49;1343,0
628,07;1244,0
628,64;1393,0
629,21;1372,0
629,78;1207,0
630,36;1361,0
630,93;1296,0
631,50;1280,0
632,07;1342,0
632,65;1237,0
633,22;1242,0
633,79;1164,0
634,36;1228,0
634,93;1256,0
635,51;1303,0
636,08;1332,0
636,65;1165,0
637,22;1300,0
637,79;1336,0
638,37;1379,0
638,94;1266,0
639,51;1438,0
640,08;1313,0
640,65;1276,0
641,22;1375,0
641,80;1471,0
642,37;1390,0
642,94;1531,0
643,51;1502,0
644,08;1549,0
644,65;1597,0
645,22;1597,0
645,80;1752,0
646,37;1830,0
646,94;2035,0
647,51;2024,0
648,08;2430,0
648,65;2482,0
649,22;2610,0
649,79;2981,0
650,36;3033,0
650,93;3244,0
651,51;3147,0
652,08;3381,0
652,65;3470,0
653,22;3959,0
653,79;4640,0
654,36;5801,0
654,93;7330,0
655,50;10539
656,07;14159
656,64;13694
657,21;14682
657,78;13414
658,35;13577
658,92;13894
659,49;14438
660,06;13296
660,63;10869
661,20;10587
661,77;10494
662,34;9297,0
662,91;8427,0
663,48;7442,0
664,05;6377,0
664,62;5131,0
665,19;4189,0
665,76;3612,0
666,33;3018,0
666,90;2832,0
667,47;2537,0
668,04;2203,0
668,61;2154,0
669,18;1918,0
669,75;1797,0
670,32;1632,0
670,89;1556,0
671,46;1609,0
672,03;1602,0
672,60;1549,0
673,17;1474,0
673,74;1485,0
674,30;1398,0
674,87;1597,0
675,44;1294,0
676,01;1346,0
676,58;1317,0
677,15;1263,0
677,72;1244,0
678,29;1100,0
678,86;1129,0
679,42;1169,0
679,99;1095,0
680,56;1174,0
681,13;1091,0
681,70;995,00
682,27;838,00
682,84;884,00
683,40;1104,0
683,97;966,00
684,54;905,00
685,11;796,00
685,68;906,00
686,25;820,00
686,81;945,00
687,38;871,00
687,95;839,00
688,52;850,00
689,09;866,00
689,65;1024,0
690,22;1040,0
690,79;1023,0
691,36;1030,0
691,92;965,00
692,49;1092,0
693,06;1006,0
693,63;998,00
694,20;1039,0
694,76;1032,0
695,33;1118,0
695,90;1017,0
696,47;999,00
697,03;986,00
697,60;990,00
698,17;1046,0
698,73;912,00
699,30;985,00
699,87;994,00
700,44;922,00
701,00;918,00
701,57;1001,0
702,14;917,00
702,70;943,00
703,27;930,00
703,84;824,00
704,40;954,00
704,97;949,00
705,54;872,00
706,10;785,00
706,67;819,00
707,24;852,00
707,80;757,00
708,37;799,00
708,94;803,00
709,50;795,00
710,07;777,00
710,64;780,00
711,20;782,00
711,77;889,00
712,33;845,00
712,90;780,00
713,47;883,00
714,03;797,00
714,60;913,00
715,16;1019,0
715,73;1000,00
716,30;1140,0
716,86;1074,0
717,43;1125,0
717,99;1076,0
718,56;1334,0
719,12;889,00
719,69;806,00
720,26;643,00
720,82;700,00
721,39;646,00
721,95;570,00
722,52;621,00
723,08;660,00
723,65;667,00
724,21;667,00
724,78;597,00
725,34;697,00
725,91;704,00
726,47;843,00
727,04;649,00
727,60;681,00
728,17;557,00
728,73;634,00
729,30;600,00
729,86;583,00
730,43;532,00
730,99;601,00
731,56;622,00
732,12;590,00
732,68;626,00
733,25;491,00
733,81;489,00
734,38;549,00
734,94;612,00
735,51;504,00
736,07;540,00
736,63;601,00
737,20;500,00
737,76;417,00
738,33;530,00
738,89;462,00
739,46;569,00
740,02;477,00
740,58;538,00
741,15;503,00
741,71;722,00
742,27;827,00
742,84;1131,0
743,40;1176,0
743,97;1725,0
744,53;1964,0
745,09;1994,0
745,66;1870,0
746,22;2305,0
746,78;2525,0
747,35;2920,0
747,91;2603,0
748,47;2270,0
749,04;2078,0
749,60;2046,0
750,16;1799,0
750,72;1135,0
751,29;645,00
751,85;510,00
752,41;421,00
752,98;388,00
753,54;529,00
754,10;334,00
754,66;401,00
755,23;338,00
755,79;396,00
756,35;435,00
756,91;341,00
757,48;449,00
758,04;319,00
758,60;365,00
759,16;441,00
759,73;416,00
760,29;311,00
760,85;265,00
761,41;268,00
761,98;395,00
762,54;387,00
763,10;324,00
763,66;275,00
764,22;418,00
764,79;349,00
765,35;183,00
765,91;306,00
766,47;403,00
767,03;340,00
767,59;283,00
768,16;285,00
768,72;215,00
769,28;419,00
769,84;508,00
770,40;231,00
770,96;384,00
771,52;410,00
772,09;361,00
772,65;323,00
773,21;370,00
773,77;287,00
774,33;346,00
774,89;250,00
775,45;435,00
776,01;502,00
776,57;1597,0
777,13;3613,0
777,70;4075,0
778,26;4216,0
778,82;4251,0
779,38;4123,0
779,94;4188,0
780,50;3911,0
781,06;2197,0
781,62;798,00
782,18;387,00
782,74;360,00
783,30;324,00
783,86;262,00
784,42;318,00
784,98;172,00
785,54;404,00
786,10;222,00
786,66;223,00
787,22;193,00
787,78;160,00
788,34;234,00
788,90;336,00
789,46;321,00
790,02;278,00
790,58;248,00
791,14;263,00
791,70;250,00
792,26;277,00
792,82;329,00
793,38;318,00
793,94;360,00
794,50;450,00
795,06;738,00
795,62;657,00
796,17;659,00
796,73;567,00
797,29;559,00
797,85;628,00
798,41;464,00
798,97;300,00
799,53;259,00
800,09;354,00
800,65;311,00
801,21;269,00
801,76;218,00
802,32;244,00
802,88;225,00
803,44;166,00
804,00;190,00
804,56;206,00
805,12;233,00
805,67;168,00
806,23;151,00
806,79;204,00
807,35;136,00
807,91;41,000
808,46;110,00
809,02;132,00
809,58;182,00
810,14;144,00
810,70;238,00
811,26;202,00
811,81;185,00
812,37;261,00
812,93;310,00
813,49;146,00
814,04;198,00
814,60;211,00
815,16;311,00
815,72;261,00
816,27;191,00
816,83;148,00
817,39;244,00
817,95;376,00
818,50;784,00
819,06;844,00
819,62;937,00
820,18;985,00
820,73;1179,0
821,29;1675,0
821,85;1934,0
822,40;1988,0
822,96;1598,0
823,52;1830,0
824,07;1545,0
824,63;1657,0
825,19;1511,0
825,74;1153,0
826,30;800,00
826,86;599,00
827,41;471,00
827,97;327,00
828,53;229,00
829,08;174,00
829,64;81,000
830,20;214,00
830,75;137,00
831,31;156,00
831,86;89,000
832,42;145,00
832,98;128,00
833,53;152,00
834,09;159,00
834,64;260,00
835,20;136,00
835,76;136,00
836,31;179,00
836,87;211,00
837,42;124,00
837,98;177,00
838,53;100,000
839,09;151,00
839,64;137,00
840,20;185,00
840,75;167,00
841,31;130,00
841,87;80,000
842,42;136,00
842,98;167,00
843,53;229,00
844,09;448,00
844,64;793,00
845,20;838,00
845,75;985,00
846,31;860,00
846,86;845,00
847,41;921,00
847,97;762,00
848,52;517,00
849,08;157,00
849,63;257,00
850,19;163,00
850,74;149,00
851,30;149,00
851,85;59,000
852,41;119,00
852,96;183,00
853,51;136,00
854,07;80,000
854,62;187,00
855,18;-53,000
855,73;101,00
856,28;114,00
856,84;182,00
857,39;333,00
857,95;310,00
858,50;276,00
859,05;281,00
859,61;354,00
860,16;369,00
860,71;170,00
861,27;183,00
861,82;276,00
862,37;384,00
862,93;465,00
863,48;559,00
864,03;613,00
864,59;542,00
865,14;496,00
865,69;695,00
866,25;602,00
866,80;1069,0
867,35;697,00
867,90;1016,0
868,46;1405,0
869,01;1482,0
869,56;1494,0
870,12;1534,0
870,67;1665,0
871,22;1690,0
871,77;1400,0
872,33;1079,0
872,88;741,00
873,43;806,00
873,98;765,00
874,54;513,00
875,09;447,00
875,64;268,00
876,19;185,00
876,74;136,00
877,30;104,00
877,85;145,00
878,40;97,000
878,95;92,000
879,50;76,000
880,06;22,000
880,61;112,00
881,16;90,000
881,71;54,000
882,26;86,000
882,81;34,000
883,37;118,00
883,92;88,000
884,47;85,000
885,02;106,00
885,57;236,00
886,12;2,0000
886,67;83,000
887,22;23,000
887,78;52,000
888,33;31,000
888,88;209,00
889,43;108,00
889,98;96,000
890,53;36,000
891,08;38,000
891,63;66,000
892,18;278,00
892,73;106,00
893,28;84,000
893,83;65,000
894,38;120,00
894,93;-34,000
895,48;135,00
896,03;91,000
896,59;25,000
897,14;131,00
897,69;86,000
898,24;11,000
898,79;98,000
899,34;103,00
899,89;125,00
900,44;149,00
900,99;119,00
901,53;122,00
902,08;24,000
902,63;188,00
903,18;174,00
903,73;223,00
904,28;307,00
904,83;345,00
905,38;422,00
905,93;521,00
906,48;557,00
907,03;442,00
907,58;494,00
908,13;408,00
908,68;399,00
909,23;334,00
909,78;197,00
910,32;230,00
910,87;88,000
911,42;230,00
911,97;190,00
912,52;187,00
913,07;278,00
913,62;107,00
914,17;118,00
914,71;248,00
915,26;159,00
915,81;53,000
916,36;162,00
916,91;167,00
917,46;110,00
918,00;156,00
918,55;110,00
919,10;289,00
919,65;181,00
920,20;124,00
920,74;176,00
921,29;72,000
921,84;222,00
922,39;142,00
922,94;143,00
923,48;109,00
924,03;121,00
924,58;6,0000
925,13;152,00
925,67;274,00
926,22;392,00
926,77;558,00
927,32;637,00
927,86;517,00
928,41;602,00
928,96;559,00
929,50;623,00
930,05;486,00
930,60;395,00
931,15;194,00
931,69;202,00
932,24;86,000
932,79;150,00
933,33;-10,0000
933,88;68,000
934,43;-47,000
934,97;64,000
935,52;186,00
936,07;-21,000
936,61;-43,000
937,16;105,00
937,71;44,000
938,25;100,000
938,80;263,00
939,34;325,00
939,89;417,00
940,44;451,00
940,98;327,00
941,53;401,00
942,07;291,00
942,62;260,00
943,17;220,00
943,71;76,000
944,26;23,000
944,80;32,000
945,35;6,0000
945,89;-17,000
946,44;94,000
946,99;100,000
947,53;68,000
948,08;42,000
948,62;67,000
949,17;91,000
949,71;117,00
950,26;59,000
950,80;58,000
951,35;170,00
951,89;85,000
952,44;-1,0000
952,98;109,00
953,53;60,000
954,07;134,00
954,62;87,000
955,16;2,0000
955,71;115,00
956,25;35,000
956,79;45,000
957,34;53,000
957,88;118,00
958,43;14,000
958,97;104,00
959,52;97,000
960,06;75,000
960,60;44,000
961,15;31,000
961,69;28,000
962,24;119,00
962,78;-19,000
963,32;95,000
963,87;11,000
964,41;171,00
964,96;68,000
965,50;54,000
966,04;55,000
966,59;52,000
967,13;70,000
967,67;-105,00
968,22;35,000
968,76;49,000
969,30;65,000
969,85;-39,000
970,39;14,000
970,93;69,000
971,47;39,000
972,02;56,000
972,56;99,000
973,10;-60,000
973,65;-5,0000
974,19;126,00
974,73;130,00
975,27;33,000
975,82;42,000
976,36;67,000
976,90;132,00
977,44;12,000
977,99;-40,000
978,53;36,000
979,07;75,000
979,61;-6,0000
980,16;8,0000
980,70;62,000
981,24;11,000
981,78;18,000
982,32;-45,000
982,87;135,00
983,41;55,000
983,95;-6,0000
984,49;91,000
985,03;-19,000
985,57;122,00
986,12;86,000
986,66;97,000
987,20;54,000
987,74;116,00
988,28;153,00
988,82;94,000
989,36;111,00
989,91;5,0000
990,45;-31,000
990,99;-54,000
991,53;-5,0000
992,07;22,000
992,61;78,000
993,15;-99,000
993,69;177,00
994,23;23,000
994,77;-9,0000
995,31;-23,000
995,86;-5,0000
996,40;61,000
996,94;38,000
997,48;34,000
998,02;84,000
998,56;0
999,10;75,000
999,64;74,000
1000,18;-22,000
1000,72;119,00
1001,26;66,000
1001,80;28,000
1002,34;-58,000
1002,88;58,000
1003,42;4,0000
1003,96;9,0000
1004,50;8,0000
1005,04;59,000
1005,58;75,000
1006,12;15,000
1006,66;114,00
1007,20;0
1007,73;62,000
1008,27;29,000
1008,81;-28,000
1009,35;89,000
1009,89;84,000
1010,43;96,000
1010,97;141,00
1011,51;186,00
1012,05;185,00
1012,59;210,00
1013,13;252,00
1013,66;228,00
1014,20;212,00
1014,74;253,00
1015,28;183,00
1015,82;124,00
1016,36;146,00
1016,90;82,000
1017,43;95,000
1017,97;170,00
1018,51;60,000
1019,05;29,000
1019,59;-8,0000
1020,13;79,000
1020,66;79,000
1021,20;94,000
1021,74;20,000
1022,28;-67,000
1022,81;83,000
1023,35;89,000
1023,89;36,000
1024,43;-8,0000
1024,97;38,000
1025,50;24,000
1026,04;4,0000
1026,58;27,000
1027,12;-10,0000
1027,65;21,000
1028,19;62,000
1028,73;8,0000
1029,26;15,000
1029,80;-62,000
1030,34;38,000
1030,88;62,000
1031,41;96,000
1031,95;-64,000
1032,49;17,000
1033,02;15,000
1033,56;70,000
1034,10;-4,0000
1034,63;-45,000
1035,17;-68,000
1035,71;-15,000
1036,24;-36,000
1036,78;22,000
1037,32;-11,000
1037,85;83,000
1038,39;138,00
1038,92;22,000
1039,46;6,0000
1040,00;-72,000
1040,53;75,000
1041,07;24,000
1041,60;82,000
1042,14;17,000
1042,68;-19,000
1043,21;-67,000
1043,75;50,000
1044,28;47,000
1044,82;-42,000
1045,35;32,000
1045,89;108,00
1046,42;84,000
1046,96;53,000
1047,49;-5,0000
1048,03;14,000
1048,57;64,000
1049,10;84,000
1049,64;5,0000
1050,17;44,000
1050,70;40,000
1051,24;41,000
1051,77;91,000
1052,31;111,00
1052,84;76,000
1053,38;6,0000
1053,91;149,00
1054,45;18,000
1054,98;125,00
1055,52;-18,000
1056,05;-45,000
1056,59;76,000
1057,12;-193,00
1057,65;-29,000
1058,19;35,000
1058,72;81,000
1059,26;-41,000
1059,79;-85,000
1060,32;111,00
1060,86;25,000
1061,39;12,000
1061,93;-37,000
1062,46;135,00
1062,99;-10,0000
1063,53;-20,000
1064,06;106,00
1064,59;-31,000
1065,13;17,000
1065,66;50,000
1066,19;20,000
1066,73;-35,000
1067,26;53,000
1067,79;9,0000
1068,33;7,0000
1068,86;180,00
1069,39;40,000
1069,92;1,0000
1070,46;75,000
1070,99;-30,000
1071,52;-68,000
1072,05;-47,000
1072,59;-51,000
1073,12;80,000
1073,65;63,000
1074,18;4,0000
1074,72;-68,000
1075,25;-11,000
1075,78;7,0000
1076,31;45,000
1076,85;14,000
1077,38;-29,000
1077,91;-10,0000
1078,44;-83,000
1078,97;24,000
1079,51;-54,000
1080,04;43,000
1080,57;-53,000
1081,10;34,000
1081,63;24,000
1082,16;-20,000
1082,70;-45,000
1083,23;53,000
1083,76;18,000
1084,29;3,0000
1084,82;22,000
1085,35;65,000
1085,88;-17,000
1086,41;-25,000
1086,94;13,000
1087,48;20,000
1088,01;-11,000
1088,54;-19,000
1089,07;63,000
1089,60;49,000
1090,13;13,000
1090,66;28,000
1091,19;-13,000
1091,72;19,000
1092,25;9,0000
1092,78;-8,0000
1093,31;-10,0000
1093,84;7,0000
1094,37;34,000
1094,90;100,000
1095,43;-13,000
1095,96;-112,00
1096,49;40,000
1097,02;11,000
1097,55;-4,0000
1098,08;26,000
1098,61;-71,000
1099,14;23,000
1099,67;32,000
1100,20;52,000
